FFT Profile of Model Wake

q Corr Factor,  0.890

Atm Press [Pa],  99500.000

Atm Temp [C],  21.500

Density [kg/m^3],  1.177

Average Tunnel Velocity [m/s],  22.126

Streamwise location [mm],66.700

Lateral location [mm],36.000


Frequency [Hz], FFT Amplitude [Vrms]
0.000,  19.778
7.812,  14.041
15.625,  0.629
23.437,  0.686
31.250,  0.718
39.062,  0.673
46.875,  0.624
54.687,  0.632
62.500,  0.554
70.312,  0.594
78.125,  0.589
85.937,  0.582
93.750,  0.547
101.562,  0.587
109.375,  0.590
117.187,  0.544
125.000,  0.573
132.812,  0.530
140.625,  0.504
148.437,  0.547
156.250,  0.582
164.062,  0.610
171.875,  0.685
179.687,  0.795
187.500,  0.936
195.312,  1.282
203.125,  1.865
210.937,  3.217
218.750,  3.637
226.562,  2.051
234.375,  1.105
242.187,  0.756
250.000,  0.706
257.812,  0.636
265.625,  0.529
273.437,  0.543
281.250,  0.524
289.062,  0.540
296.875,  0.495
304.687,  0.473
312.500,  0.507
320.312,  0.530
328.125,  0.513
335.937,  0.470
343.750,  0.450
351.562,  0.447
359.375,  0.455
367.187,  0.406
375.000,  0.436
382.812,  0.461
390.625,  0.466
398.437,  0.512
406.250,  0.547
414.062,  0.557
421.875,  0.541
429.687,  0.548
437.500,  0.577
445.312,  0.575
453.125,  0.556
460.937,  0.458
468.750,  0.434
476.562,  0.436
484.375,  0.453
492.187,  0.420
500.000,  0.376
507.812,  0.394
515.625,  0.366
523.437,  0.338
531.250,  0.388
539.062,  0.392
546.875,  0.331
554.687,  0.292
562.500,  0.319
570.312,  0.373
578.125,  0.362
585.937,  0.321
593.750,  0.362
601.562,  0.392
609.375,  0.398
617.187,  0.437
625.000,  0.448
632.812,  0.448
640.625,  0.415
648.437,  0.387
656.250,  0.443
664.062,  0.411
671.875,  0.397
679.687,  0.391
687.500,  0.342
695.312,  0.321
703.125,  0.323
710.937,  0.310
718.750,  0.314
726.562,  0.302
734.375,  0.314
742.187,  0.297
750.000,  0.278
757.812,  0.263
765.625,  0.281
773.437,  0.289
781.250,  0.272
789.062,  0.272
796.875,  0.258
804.687,  0.276
812.500,  0.270
820.312,  0.305
828.125,  0.327
835.937,  0.280
843.750,  0.276
851.562,  0.300
859.375,  0.330
867.187,  0.324
875.000,  0.263
882.812,  0.261
890.625,  0.278
898.437,  0.236
906.250,  0.230
914.062,  0.240
921.875,  0.242
929.687,  0.235
937.500,  0.237
945.312,  0.254
953.125,  0.264
960.937,  0.269
968.750,  0.251
976.562,  0.230
984.375,  0.230
992.187,  0.226
1000.000,  0.239
1007.812,  0.242
1015.625,  0.236
1023.437,  0.240
1031.250,  0.241
1039.062,  0.233
1046.875,  0.210
1054.687,  0.209
1062.500,  0.222
1070.312,  0.235
1078.125,  0.207
1085.937,  0.212
1093.750,  0.242
1101.562,  0.243
1109.375,  0.232
1117.187,  0.214
1125.000,  0.218
1132.812,  0.221
1140.625,  0.212
1148.437,  0.204
1156.250,  0.214
1164.062,  0.235
1171.875,  0.223
1179.687,  0.184
1187.500,  0.192
1195.312,  0.204
1203.125,  0.165
1210.937,  0.183
1218.750,  0.197
1226.562,  0.182
1234.375,  0.208
1242.187,  0.217
1250.000,  0.207
1257.812,  0.185
1265.625,  0.179
1273.437,  0.205
1281.250,  0.208
1289.062,  0.172
1296.875,  0.166
1304.687,  0.190
1312.500,  0.180
1320.312,  0.204
1328.125,  0.203
1335.937,  0.210
1343.750,  0.205
1351.562,  0.206
1359.375,  0.207
1367.187,  0.194
1375.000,  0.189
1382.812,  0.175
1390.625,  0.176
1398.437,  0.184
1406.250,  0.174
1414.062,  0.181
1421.875,  0.196
1429.687,  0.178
1437.500,  0.181
1445.312,  0.172
1453.125,  0.173
1460.937,  0.181
1468.750,  0.170
1476.562,  0.189
1484.375,  0.185
1492.187,  0.174
1500.000,  0.164
1507.812,  0.166
1515.625,  0.183
1523.437,  0.171
1531.250,  0.157
1539.062,  0.157
1546.875,  0.167
1554.687,  0.186
1562.500,  0.162
1570.312,  0.154
1578.125,  0.141
1585.937,  0.140
1593.750,  0.152
1601.562,  0.155
1609.375,  0.173
1617.187,  0.175
1625.000,  0.146
1632.812,  0.143
1640.625,  0.145
1648.437,  0.145
1656.250,  0.139
1664.062,  0.147
1671.875,  0.138
1679.687,  0.139
1687.500,  0.139
1695.312,  0.141
1703.125,  0.150
1710.937,  0.156
1718.750,  0.157
1726.562,  0.137
1734.375,  0.124
1742.187,  0.136
1750.000,  0.142
1757.812,  0.146
1765.625,  0.145
1773.437,  0.152
1781.250,  0.141
1789.062,  0.134
1796.875,  0.146
1804.687,  0.149
1812.500,  0.153
1820.312,  0.141
1828.125,  0.128
1835.937,  0.130
1843.750,  0.139
1851.562,  0.150
1859.375,  0.129
1867.187,  0.123
1875.000,  0.136
1882.812,  0.139
1890.625,  0.128
1898.437,  0.141
1906.250,  0.137
1914.062,  0.133
1921.875,  0.140
1929.687,  0.141
1937.500,  0.133
1945.312,  0.128
1953.125,  0.140
1960.937,  0.121
1968.750,  0.121
1976.562,  0.123
1984.375,  0.134
1992.187,  0.120
2000.000,  0.122
2007.812,  0.138
2015.625,  0.155
2023.437,  0.133
2031.250,  0.117
2039.062,  0.112
2046.875,  0.129
2054.687,  0.131
2062.500,  0.134
2070.312,  0.130
2078.125,  0.121
2085.937,  0.110
2093.750,  0.126
2101.562,  0.127
2109.375,  0.106
2117.187,  0.099
2125.000,  0.103
2132.812,  0.111
2140.625,  0.107
2148.437,  0.109
2156.250,  0.118
2164.062,  0.127
2171.875,  0.123
2179.687,  0.115
2187.500,  0.131
2195.312,  0.119
2203.125,  0.124
2210.937,  0.117
2218.750,  0.115
2226.562,  0.117
2234.375,  0.110
2242.187,  0.106
2250.000,  0.116
2257.812,  0.113
2265.625,  0.108
2273.437,  0.111
2281.250,  0.115
2289.062,  0.105
2296.875,  0.104
2304.687,  0.108
2312.500,  0.115
2320.312,  0.121
2328.125,  0.114
2335.937,  0.106
2343.750,  0.094
2351.562,  0.109
2359.375,  0.098
2367.187,  0.098
2375.000,  0.115
2382.812,  0.108
2390.625,  0.103
2398.437,  0.110
2406.250,  0.112
2414.062,  0.101
2421.875,  0.110
2429.687,  0.111
2437.500,  0.096
2445.312,  0.107
2453.125,  0.112
2460.937,  0.112
2468.750,  0.106
2476.562,  0.106
2484.375,  0.100
2492.187,  0.104
2500.000,  0.105
2507.812,  0.117
2515.625,  0.109
2523.437,  0.098
2531.250,  0.103
2539.062,  0.098
2546.875,  0.096
2554.687,  0.094
2562.500,  0.097
2570.312,  0.104
2578.125,  0.096
2585.937,  0.107
2593.750,  0.100
2601.562,  0.087
2609.375,  0.097
2617.187,  0.091
2625.000,  0.094
2632.812,  0.095
2640.625,  0.102
2648.437,  0.100
2656.250,  0.098
2664.062,  0.101
2671.875,  0.102
2679.687,  0.093
2687.500,  0.096
2695.312,  0.100
2703.125,  0.088
2710.937,  0.082
2718.750,  0.093
2726.562,  0.101
2734.375,  0.091
2742.187,  0.096
2750.000,  0.098
2757.812,  0.090
2765.625,  0.095
2773.437,  0.097
2781.250,  0.102
2789.062,  0.091
2796.875,  0.088
2804.687,  0.080
2812.500,  0.080
2820.312,  0.088
2828.125,  0.089
2835.937,  0.092
2843.750,  0.095
2851.562,  0.092
2859.375,  0.093
2867.187,  0.097
2875.000,  0.095
2882.812,  0.097
2890.625,  0.095
2898.437,  0.091
2906.250,  0.087
2914.062,  0.082
2921.875,  0.077
2929.687,  0.084
2937.500,  0.088
2945.312,  0.088
2953.125,  0.091
2960.937,  0.076
2968.750,  0.087
2976.562,  0.083
2984.375,  0.090
2992.187,  0.098
3000.000,  0.105
3007.812,  0.090
3015.625,  0.077
3023.437,  0.080
3031.250,  0.085
3039.062,  0.091
3046.875,  0.091
3054.687,  0.088
3062.500,  0.080
3070.312,  0.076
3078.125,  0.088
3085.937,  0.085
3093.750,  0.084
3101.562,  0.083
3109.375,  0.087
3117.187,  0.082
3125.000,  0.081
3132.812,  0.096
3140.625,  0.091
3148.437,  0.091
3156.250,  0.099
3164.062,  0.097
3171.875,  0.097
3179.687,  0.083
3187.500,  0.077
3195.312,  0.080
3203.125,  0.086
3210.937,  0.090
3218.750,  0.089
3226.562,  0.084
3234.375,  0.084
3242.187,  0.098
3250.000,  0.088
3257.812,  0.079
3265.625,  0.081
3273.437,  0.080
3281.250,  0.081
3289.062,  0.073
3296.875,  0.076
3304.687,  0.079
3312.500,  0.082
3320.312,  0.081
3328.125,  0.081
3335.937,  0.076
3343.750,  0.089
3351.562,  0.094
3359.375,  0.083
3367.187,  0.080
3375.000,  0.080
3382.812,  0.076
3390.625,  0.085
3398.437,  0.087
3406.250,  0.084
3414.062,  0.081
3421.875,  0.081
3429.687,  0.084
3437.500,  0.079
3445.312,  0.077
3453.125,  0.083
3460.937,  0.088
3468.750,  0.084
3476.562,  0.077
3484.375,  0.085
3492.187,  0.087
3500.000,  0.084
3507.812,  0.086
3515.625,  0.085
3523.437,  0.073
3531.250,  0.071
3539.062,  0.078
3546.875,  0.082
3554.687,  0.082
3562.500,  0.070
3570.312,  0.082
3578.125,  0.074
3585.937,  0.069
3593.750,  0.077
3601.562,  0.077
3609.375,  0.076
3617.187,  0.081
3625.000,  0.082
3632.812,  0.077
3640.625,  0.077
3648.437,  0.069
3656.250,  0.076
3664.062,  0.077
3671.875,  0.071
3679.687,  0.071
3687.500,  0.075
3695.312,  0.081
3703.125,  0.082
3710.937,  0.086
3718.750,  0.080
3726.562,  0.085
3734.375,  0.091
3742.187,  0.090
3750.000,  0.073
3757.812,  0.073
3765.625,  0.077
3773.437,  0.076
3781.250,  0.071
3789.062,  0.071
3796.875,  0.074
3804.687,  0.071
3812.500,  0.078
3820.312,  0.080
3828.125,  0.078
3835.937,  0.071
3843.750,  0.071
3851.562,  0.073
3859.375,  0.076
3867.187,  0.077
3875.000,  0.076
3882.812,  0.083
3890.625,  0.086
3898.437,  0.076
3906.250,  0.078
3914.062,  0.077
3921.875,  0.075
3929.687,  0.073
3937.500,  0.081
3945.312,  0.081
3953.125,  0.078
3960.937,  0.082
3968.750,  0.089
3976.562,  0.081
3984.375,  0.073
3992.187,  0.076
